'cu208003.bt5' 'Apr 24 2001 11:57' 'I'       2000.    1  'TIME'   15  'RAW'
  Filename         Date            Scan       Mon    Prf  Base   #pts  Type
cu208                                             
  0   0   0   0   0  0  0     0.0000     0.00000 0.00000   0.00000    2
 Collimation      Mosaic    Wavelength   T-Start   Incr.   H-field #Det
  1       0.00050    0.00000    0.00050
  2       2.00000    0.20000    4.80000
  3      25.00000    0.00000   25.00000
  4       0.00000    0.00000    0.00000
  5       0.00000    0.00000    0.00000
  6       0.00000    0.00000    0.00000
 Mot:    Start       Step      End
     A2       MIN       COUNTS 
      2.000   33.33        3481
 26810161,3481,1815,5908136,2038,1864,69,0,0,0,0,0,0,0,0,0
      2.200   33.33        3023
 26812644,3023,1565,5909058,1849,1560,73,0,0,0,0,0,0,0,0,0
      2.400   33.33        2620
 26822678,2620,1395,5912511,1580,1464,58,0,0,0,0,0,0,0,0,0
      2.600   33.33        2260
 26882010,2260,1214,5925071,1338,1281,48,0,0,0,0,0,0,0,0,0
      2.800   33.33        1851
 26949951,1851,984,5938995,1138,1050,47,0,0,0,0,0,0,0,0,0
      3.000   33.33        1698
 27034379,1698,833,5951214,980,916,44,0,0,0,0,0,0,0,0,0
      3.200   33.33        1471
 27115396,1471,779,5969777,928,783,36,0,0,0,0,0,0,0,0,0
      3.400   33.33        1295
 27157046,1295,663,5982159,771,715,45,0,0,0,0,0,0,0,0,0
      3.600   33.33        1118
 27172844,1118,552,5981913,639,620,39,0,0,0,0,0,0,0,0,0
      3.800   33.33         963
 27169316,963,466,5980914,565,560,31,0,0,0,0,0,0,0,0,0
      4.000   33.33         882
 27169371,882,416,5980146,551,441,23,0,0,0,0,0,0,0,0,0
      4.200   33.33         754
 27180087,754,417,5981586,453,445,27,0,0,0,0,0,0,0,0,0
      4.400   33.33         681
 27179577,681,365,5980783,417,364,18,0,0,0,0,0,0,0,0,0
      4.600   33.33         579
 27186744,579,318,5972818,353,328,28,0,0,0,0,0,0,0,0,0
      4.800   33.33         532
 27192038,532,266,5974959,337,291,21,0,0,0,0,0,0,0,0,0
